Date: 2-28-2020    Time: 12:20:7
Integration time per accumulation is 10 sec.
File for binning: <none>
Shutter Mode:  Auto
Cosmic Ray Removal: no
Sum Frames: no
File for bkgd subtraction: <no background>
File for white light calibration: <no wl correction>
Savitsky-Golay Smooth: no
CCD temperature: -60 Celsius
Comment: <no comment>
Tune Laser: Off
Data mode:  Spectrum mode.  Full Vertical Bin
Number of accumulations per frame: 1
Number of frames: 1
Total seconds of CCD data acquisition: 10
Number of xpixels: 1024
Number of tracks per frame: 1
Calibration File: C:\CCD\Jason\Controller\Calibration\SpectralCalibration\Calibration Data\Calibration_7-27-10b.asc
Track shifts: 0
1	840.77	150.06	416
2	840.94	152.37	427
3	841.1	154.67	459
4	841.26	156.97	491
5	841.43	159.27	527
6	841.59	161.58	555
7	841.75	163.88	573
8	841.92	166.17	591
9	842.08	168.47	644
10	842.24	170.77	722
11	842.4	173.06	845
12	842.57	175.36	954
13	842.73	177.65	1065
14	842.89	179.95	1109
15	843.06	182.24	1148
16	843.22	184.53	1163
17	843.38	186.82	1208
18	843.54	189.11	1253
19	843.71	191.4	1323
20	843.87	193.68	1373
21	844.03	195.97	1464
22	844.2	198.25	1479
23	844.36	200.54	1522
24	844.52	202.82	1528
25	844.68	205.1	1564
26	844.85	207.38	1582
27	845.01	209.66	1588
28	845.17	211.94	1611
29	845.33	214.22	1692
30	845.5	216.49	1719
31	845.66	218.77	1714
32	845.82	221.05	1751
33	845.99	223.32	1765
34	846.15	225.59	1799
35	846.31	227.86	1805
36	846.47	230.13	1809
37	846.64	232.4	1839
38	846.8	234.67	1881
39	846.96	236.94	1925
40	847.12	239.21	1933
41	847.29	241.47	1999
42	847.45	243.74	2028
43	847.61	246	1997
44	847.77	248.26	2035
45	847.94	250.53	2076
46	848.1	252.79	2087
47	848.26	255.05	2097
48	848.42	257.31	2162
49	848.59	259.56	2204
50	848.75	261.82	2242
51	848.91	264.08	2253
52	849.07	266.33	2286
53	849.24	268.58	2312
54	849.4	270.84	2351
55	849.56	273.09	2361
56	849.72	275.34	2346
57	849.89	277.59	2427
58	850.05	279.84	2475
59	850.21	282.09	2481
60	850.37	284.33	2526
61	850.54	286.58	2498
62	850.7	288.82	2515
63	850.86	291.07	2553
64	851.02	293.31	2618
65	851.19	295.55	2640
66	851.35	297.79	2647
67	851.51	300.03	2709
68	851.67	302.27	2744
69	851.84	304.51	2775
70	852	306.74	2771
71	852.16	308.98	2792
72	852.32	311.22	2855
73	852.49	313.45	2878
74	852.65	315.68	2966
75	852.81	317.91	2986
76	852.97	320.14	3075
77	853.13	322.37	3095
78	853.3	324.6	3127
79	853.46	326.83	3083
80	853.62	329.06	3160
81	853.78	331.28	3167
82	853.95	333.51	3189
83	854.11	335.73	3242
84	854.27	337.96	3281
85	854.43	340.18	3348
86	854.59	342.4	3351
87	854.76	344.62	3432
88	854.92	346.84	3387
89	855.08	349.05	3463
90	855.24	351.27	3501
91	855.41	353.49	3553
92	855.57	355.7	3505
93	855.73	357.92	3633
94	855.89	360.13	3646
95	856.05	362.34	3718
96	856.22	364.55	3769
97	856.38	366.76	3748
98	856.54	368.97	3818
99	856.7	371.18	3894
100	856.86	373.39	3848
101	857.03	375.59	3887
102	857.19	377.8	3927
103	857.35	380	3976
104	857.51	382.2	4034
105	857.67	384.41	4031
106	857.84	386.61	4069
107	858	388.81	4079
108	858.16	391.01	4141
109	858.32	393.2	4197
110	858.48	395.4	4255
111	858.64	397.6	4275
112	858.81	399.79	4316
113	858.97	401.99	4292
114	859.13	404.18	4398
115	859.29	406.37	4390
116	859.45	408.56	4434
117	859.62	410.75	4461
118	859.78	412.94	4502
119	859.94	415.13	4567
120	860.1	417.32	4551
121	860.26	419.5	4588
122	860.42	421.69	4595
123	860.59	423.87	4671
124	860.75	426.06	4723
125	860.91	428.24	4739
126	861.07	430.42	4796
127	861.23	432.6	4812
128	861.4	434.78	4848
129	861.56	436.96	4895
130	861.72	439.13	4916
131	861.88	441.31	4951
132	862.04	443.49	4933
133	862.2	445.66	4928
134	862.36	447.83	4969
135	862.53	450.01	5030
136	862.69	452.18	5038
137	862.85	454.35	5159
138	863.01	456.52	5192
139	863.17	458.69	5207
140	863.33	460.85	5223
141	863.5	463.02	5273
142	863.66	465.19	5287
143	863.82	467.35	5338
144	863.98	469.51	5352
145	864.14	471.68	5385
146	864.3	473.84	5410
147	864.46	476	5436
148	864.63	478.16	5525
149	864.79	480.32	5537
150	864.95	482.47	5595
151	865.11	484.63	5604
152	865.27	486.79	5617
153	865.43	488.94	5697
154	865.59	491.1	5675
155	865.76	493.25	5725
156	865.92	495.4	5772
157	866.08	497.55	5819
158	866.24	499.7	5847
159	866.4	501.85	5896
160	866.56	504	5871
161	866.72	506.14	5911
162	866.88	508.29	5945
163	867.05	510.43	5958
164	867.21	512.58	6003
165	867.37	514.72	6035
166	867.53	516.86	6085
167	867.69	519	6119
168	867.85	521.14	6103
169	868.01	523.28	6141
170	868.17	525.42	6221
171	868.33	527.56	6214
172	868.5	529.69	6358
173	868.66	531.83	6266
174	868.82	533.96	6371
175	868.98	536.1	6426
176	869.14	538.23	6394
177	869.3	540.36	6402
178	869.46	542.49	6436
179	869.62	544.62	6503
180	869.78	546.75	6508
181	869.95	548.88	6551
182	870.11	551	6597
183	870.27	553.13	6643
184	870.43	555.25	6622
185	870.59	557.37	6643
186	870.75	559.5	6723
187	870.91	561.62	6702
188	871.07	563.74	6742
189	871.23	565.86	6731
190	871.39	567.98	6810
191	871.55	570.09	6872
192	871.71	572.21	6884
193	871.88	574.33	6857
194	872.04	576.44	6915
195	872.2	578.55	6971
196	872.36	580.67	7004
197	872.52	582.78	7082
198	872.68	584.89	7064
199	872.84	587	7128
200	873	589.11	7199
201	873.16	591.22	7119
202	873.32	593.32	7278
203	873.48	595.43	7226
204	873.64	597.53	7269
205	873.8	599.64	7256
206	873.96	601.74	7439
207	874.12	603.84	7370
208	874.29	605.94	7415
209	874.45	608.04	7421
210	874.61	610.14	7489
211	874.77	612.24	7465
212	874.93	614.34	7501
213	875.09	616.43	7588
214	875.25	618.53	7627
215	875.41	620.62	7653
216	875.57	622.72	7732
217	875.73	624.81	7844
218	875.89	626.9	7775
219	876.05	628.99	7785
220	876.21	631.08	7700
221	876.37	633.17	7750
222	876.53	635.26	7792
223	876.69	637.34	7834
224	876.85	639.43	7881
225	877.01	641.51	7976
226	877.17	643.6	7971
227	877.33	645.68	7918
228	877.49	647.76	7946
229	877.65	649.84	8042
230	877.81	651.92	8053
231	877.97	654	8090
232	878.13	656.08	8067
233	878.29	658.15	8135
234	878.45	660.23	8154
235	878.61	662.3	8149
236	878.78	664.38	8310
237	878.94	666.45	8249
238	879.1	668.52	8289
239	879.26	670.59	8244
240	879.42	672.66	8315
241	879.58	674.73	8321
242	879.74	676.8	8364
243	879.9	678.87	8295
244	880.06	680.93	8375
245	880.22	683	8350
246	880.38	685.06	8406
247	880.54	687.13	8423
248	880.7	689.19	8510
249	880.86	691.25	8454
250	881.02	693.31	8508
251	881.17	695.37	8476
252	881.33	697.43	8516
253	881.49	699.49	8632
254	881.65	701.54	8604
255	881.81	703.6	8637
256	881.97	705.65	8635
257	882.13	707.71	8689
258	882.29	709.76	8715
259	882.45	711.81	8783
260	882.61	713.86	8811
261	882.77	715.91	8803
262	882.93	717.96	8824
263	883.09	720.01	8790
264	883.25	722.05	8876
265	883.41	724.1	8870
266	883.57	726.15	8912
267	883.73	728.19	8903
268	883.89	730.23	8897
269	884.05	732.28	9081
270	884.21	734.32	8998
271	884.37	736.36	9091
272	884.53	738.4	9036
273	884.69	740.43	9079
274	884.85	742.47	9133
275	885.01	744.51	9135
276	885.17	746.54	9126
277	885.33	748.58	9149
278	885.49	750.61	9181
279	885.64	752.64	9167
280	885.8	754.67	9197
281	885.96	756.71	9241
282	886.12	758.74	9282
283	886.28	760.76	9220
284	886.44	762.79	9344
285	886.6	764.82	9254
286	886.76	766.84	9371
287	886.92	768.87	9437
288	887.08	770.89	9405
289	887.24	772.92	9440
290	887.4	774.94	9461
291	887.56	776.96	9401
292	887.72	778.98	9459
293	887.87	781	9550
294	888.03	783.02	9530
295	888.19	785.03	9509
296	888.35	787.05	9590
297	888.51	789.07	9625
298	888.67	791.08	9652
299	888.83	793.09	9666
300	888.99	795.11	9751
301	889.15	797.12	9741
302	889.31	799.13	9810
303	889.46	801.14	9812
304	889.62	803.15	9819
305	889.78	805.15	9769
306	889.94	807.16	9835
307	890.1	809.17	9834
308	890.26	811.17	9799
309	890.42	813.17	9847
310	890.58	815.18	9835
311	890.74	817.18	9801
312	890.89	819.18	9866
313	891.05	821.18	9899
314	891.21	823.18	9818
315	891.37	825.18	9851
316	891.53	827.17	9896
317	891.69	829.17	9969
318	891.85	831.17	9872
319	892.01	833.16	9976
320	892.16	835.15	9958
321	892.32	837.15	9948
322	892.48	839.14	9965
323	892.64	841.13	9973
324	892.8	843.12	9901
325	892.96	845.11	10034
326	893.12	847.09	10106
327	893.27	849.08	10193
328	893.43	851.07	10135
329	893.59	853.05	10088
330	893.75	855.04	10145
331	893.91	857.02	10178
332	894.07	859	10201
333	894.22	860.98	10266
334	894.38	862.96	10315
335	894.54	864.94	10304
336	894.7	866.92	10277
337	894.86	868.9	10296
338	895.02	870.87	10360
339	895.17	872.85	10377
340	895.33	874.82	10407
341	895.49	876.8	10397
342	895.65	878.77	10451
343	895.81	880.74	10413
344	895.97	882.71	10436
345	896.12	884.68	10417
346	896.28	886.65	10424
347	896.44	888.62	10474
348	896.6	890.59	10525
349	896.76	892.55	10520
350	896.91	894.52	10565
351	897.07	896.48	10549
352	897.23	898.44	10551
353	897.39	900.41	10528
354	897.55	902.37	10571
355	897.7	904.33	10572
356	897.86	906.29	10646
357	898.02	908.24	10650
358	898.18	910.2	10582
359	898.34	912.16	10652
360	898.49	914.11	10612
361	898.65	916.07	10694
362	898.81	918.02	10601
363	898.97	919.98	10724
364	899.12	921.93	10647
365	899.28	923.88	10679
366	899.44	925.83	10671
367	899.6	927.78	10747
368	899.76	929.73	10747
369	899.91	931.67	10713
370	900.07	933.62	10741
371	900.23	935.56	10774
372	900.39	937.51	10771
373	900.54	939.45	10793
374	900.7	941.39	10731
375	900.86	943.34	10783
376	901.02	945.28	10881
377	901.17	947.22	10828
378	901.33	949.15	10855
379	901.49	951.09	10792
380	901.65	953.03	10756
381	901.8	954.96	10823
382	901.96	956.9	10895
383	902.12	958.83	10821
384	902.28	960.77	10730
385	902.43	962.7	10859
386	902.59	964.63	10865
387	902.75	966.56	10763
388	902.9	968.49	10757
389	903.06	970.42	10890
390	903.22	972.34	10857
391	903.38	974.27	10845
392	903.53	976.2	10762
393	903.69	978.12	10880
394	903.85	980.05	10879
395	904	981.97	10867
396	904.16	983.89	10893
397	904.32	985.81	10874
398	904.48	987.73	10927
399	904.63	989.65	10984
400	904.79	991.57	10968
401	904.95	993.48	10936
402	905.1	995.4	11050
403	905.26	997.32	11002
404	905.42	999.23	11059
405	905.57	1001.1	11232
406	905.73	1003.1	11396
407	905.89	1005	11524
408	906.05	1006.9	11508
409	906.2	1008.8	11377
410	906.36	1010.7	11331
411	906.52	1012.6	11188
412	906.67	1014.5	11116
413	906.83	1016.4	11121
414	906.99	1018.3	11127
415	907.14	1020.2	11091
416	907.3	1022.1	11106
417	907.46	1024	11113
418	907.61	1025.9	11083
419	907.77	1027.8	11033
420	907.93	1029.7	11090
421	908.08	1031.6	11169
422	908.24	1033.5	11187
423	908.39	1035.4	11191
424	908.55	1037.3	11160
425	908.71	1039.2	11192
426	908.86	1041.1	11173
427	909.02	1043	11086
428	909.18	1044.9	11097
429	909.33	1046.8	11080
430	909.49	1048.7	11033
431	909.65	1050.6	10995
432	909.8	1052.5	10965
433	909.96	1054.3	11015
434	910.11	1056.2	11093
435	910.27	1058.1	11028
436	910.43	1060	10956
437	910.58	1061.9	11034
438	910.74	1063.8	11009
439	910.9	1065.6	11057
440	911.05	1067.5	11004
441	911.21	1069.4	10958
442	911.36	1071.3	10991
443	911.52	1073.2	10939
444	911.68	1075	11045
445	911.83	1076.9	10955
446	911.99	1078.8	10932
447	912.14	1080.7	10930
448	912.3	1082.5	10965
449	912.46	1084.4	10981
450	912.61	1086.3	10958
451	912.77	1088.2	10852
452	912.92	1090	10825
453	913.08	1091.9	10846
454	913.23	1093.8	10835
455	913.39	1095.6	10845
456	913.55	1097.5	10903
457	913.7	1099.4	10730
458	913.86	1101.2	10837
459	914.01	1103.1	10760
460	914.17	1105	10887
461	914.32	1106.8	10800
462	914.48	1108.7	10794
463	914.64	1110.5	10664
464	914.79	1112.4	10720
465	914.95	1114.2	10650
466	915.1	1116.1	10690
467	915.26	1118	10582
468	915.41	1119.8	10581
469	915.57	1121.7	10673
470	915.72	1123.5	10653
471	915.88	1125.4	10647
472	916.03	1127.2	10531
473	916.19	1129.1	10580
474	916.34	1130.9	10646
475	916.5	1132.8	10577
476	916.65	1134.6	10502
477	916.81	1136.5	10539
478	916.97	1138.3	10550
479	917.12	1140.2	10567
480	917.28	1142	10544
481	917.43	1143.8	10492
482	917.59	1145.7	10488
483	917.74	1147.5	10432
484	917.9	1149.4	10465
485	918.05	1151.2	10486
486	918.21	1153.1	10459
487	918.36	1154.9	10469
488	918.52	1156.7	10412
489	918.67	1158.6	10402
490	918.83	1160.4	10392
491	918.98	1162.2	10467
492	919.14	1164.1	10518
493	919.29	1165.9	10400
494	919.44	1167.7	10414
495	919.6	1169.6	10344
496	919.75	1171.4	10344
497	919.91	1173.2	10303
498	920.06	1175	10320
499	920.22	1176.9	10347
500	920.37	1178.7	10227
501	920.53	1180.5	10312
502	920.68	1182.3	10290
503	920.84	1184.2	10243
504	920.99	1186	10200
505	921.15	1187.8	10291
506	921.3	1189.6	10232
507	921.45	1191.4	10335
508	921.61	1193.3	10288
509	921.76	1195.1	10250
510	921.92	1196.9	10165
511	922.07	1198.7	10236
512	922.23	1200.5	10191
513	922.38	1202.3	10193
514	922.54	1204.2	10272
515	922.69	1206	10168
516	922.84	1207.8	10167
517	923	1209.6	10242
518	923.15	1211.4	10227
519	923.31	1213.2	10180
520	923.46	1215	10230
521	923.61	1216.8	10226
522	923.77	1218.6	10181
523	923.92	1220.4	10189
524	924.08	1222.2	10132
525	924.23	1224	10165
526	924.38	1225.8	10132
527	924.54	1227.6	10132
528	924.69	1229.4	10236
529	924.85	1231.2	10173
530	925	1233	10206
531	925.15	1234.8	10141
532	925.31	1236.6	10134
533	925.46	1238.4	10149
534	925.61	1240.2	10257
535	925.77	1242	10169
536	925.92	1243.8	10169
537	926.08	1245.6	10119
538	926.23	1247.4	10074
539	926.38	1249.2	10177
540	926.54	1251	10125
541	926.69	1252.8	10230
542	926.84	1254.6	10167
543	927	1256.3	10177
544	927.15	1258.1	10059
545	927.3	1259.9	10157
546	927.46	1261.7	10009
547	927.61	1263.5	10109
548	927.76	1265.3	10178
549	927.92	1267	10009
550	928.07	1268.8	10006
551	928.22	1270.6	10039
552	928.38	1272.4	10090
553	928.53	1274.2	9975
554	928.68	1275.9	10112
555	928.84	1277.7	10081
556	928.99	1279.5	10070
557	929.14	1281.3	9978
558	929.3	1283	10022
559	929.45	1284.8	10028
560	929.6	1286.6	10065
561	929.76	1288.3	10008
562	929.91	1290.1	10087
563	930.06	1291.9	10043
564	930.21	1293.6	10005
565	930.37	1295.4	10009
566	930.52	1297.2	10045
567	930.67	1298.9	10035
568	930.83	1300.7	10064
569	930.98	1302.5	10001
570	931.13	1304.2	10018
571	931.28	1306	10009
572	931.44	1307.8	10081
573	931.59	1309.5	10047
574	931.74	1311.3	10130
575	931.9	1313	10001
576	932.05	1314.8	10122
577	932.2	1316.5	10122
578	932.35	1318.3	10116
579	932.51	1320.1	10054
580	932.66	1321.8	10066
581	932.81	1323.6	10056
582	932.96	1325.3	10021
583	933.11	1327.1	10035
584	933.27	1328.8	9988
585	933.42	1330.6	10083
586	933.57	1332.3	10137
587	933.72	1334.1	10108
588	933.88	1335.8	10088
589	934.03	1337.5	10009
590	934.18	1339.3	10103
591	934.33	1341	10011
592	934.49	1342.8	10054
593	934.64	1344.5	9999
594	934.79	1346.3	9943
595	934.94	1348	10013
596	935.09	1349.7	10022
597	935.25	1351.5	10022
598	935.4	1353.2	9913
599	935.55	1354.9	9976
600	935.7	1356.7	9983
601	935.85	1358.4	9979
602	936.01	1360.2	9972
603	936.16	1361.9	10042
604	936.31	1363.6	9875
605	936.46	1365.3	10028
606	936.61	1367.1	9983
607	936.76	1368.8	9960
608	936.92	1370.5	9931
609	937.07	1372.3	9988
610	937.22	1374	9968
611	937.37	1375.7	9890
612	937.52	1377.4	9965
613	937.67	1379.2	9915
614	937.83	1380.9	9917
615	937.98	1382.6	9879
616	938.13	1384.3	9928
617	938.28	1386	9924
618	938.43	1387.8	9871
619	938.58	1389.5	9972
620	938.73	1391.2	9945
621	938.88	1392.9	9858
622	939.04	1394.6	9872
623	939.19	1396.3	9930
624	939.34	1398.1	9909
625	939.49	1399.8	9862
626	939.64	1401.5	9863
627	939.79	1403.2	9868
628	939.94	1404.9	9797
629	940.09	1406.6	9897
630	940.25	1408.3	9754
631	940.4	1410	9836
632	940.55	1411.7	9701
633	940.7	1413.4	9799
634	940.85	1415.2	9832
635	941	1416.9	9796
636	941.15	1418.6	9726
637	941.3	1420.3	9743
638	941.45	1422	9690
639	941.6	1423.7	9717
640	941.75	1425.4	9734
641	941.9	1427.1	9683
642	942.06	1428.8	9738
643	942.21	1430.5	9685
644	942.36	1432.2	9705
645	942.51	1433.9	9681
646	942.66	1435.5	9559
647	942.81	1437.2	9609
648	942.96	1438.9	9598
649	943.11	1440.6	9563
650	943.26	1442.3	9650
651	943.41	1444	9597
652	943.56	1445.7	9617
653	943.71	1447.4	9603
654	943.86	1449.1	9532
655	944.01	1450.8	9560
656	944.16	1452.4	9519
657	944.31	1454.1	9585
658	944.46	1455.8	9572
659	944.61	1457.5	9529
660	944.76	1459.2	9599
661	944.91	1460.9	9530
662	945.06	1462.5	9496
663	945.21	1464.2	9536
664	945.36	1465.9	9475
665	945.51	1467.6	9514
666	945.66	1469.2	9471
667	945.81	1470.9	9490
668	945.96	1472.6	9456
669	946.11	1474.3	9436
670	946.26	1475.9	9431
671	946.41	1477.6	9454
672	946.56	1479.3	9441
673	946.71	1481	9376
674	946.86	1482.6	9364
675	947.01	1484.3	9333
676	947.16	1486	9362
677	947.31	1487.6	9325
678	947.46	1489.3	9317
679	947.61	1491	9307
680	947.76	1492.6	9249
681	947.91	1494.3	9280
682	948.06	1496	9231
683	948.21	1497.6	9175
684	948.36	1499.3	9233
685	948.5	1500.9	9184
686	948.65	1502.6	9119
687	948.8	1504.3	9145
688	948.95	1505.9	9127
689	949.1	1507.6	9156
690	949.25	1509.2	9085
691	949.4	1510.9	9147
692	949.55	1512.5	9128
693	949.7	1514.2	9043
694	949.85	1515.8	9087
695	950	1517.5	9053
696	950.14	1519.1	9033
697	950.29	1520.8	9100
698	950.44	1522.4	9060
699	950.59	1524.1	8987
700	950.74	1525.7	8939
701	950.89	1527.4	8886
702	951.04	1529	8970
703	951.19	1530.7	8926
704	951.34	1532.3	8892
705	951.48	1534	8997
706	951.63	1535.6	8926
707	951.78	1537.2	8907
708	951.93	1538.9	8913
709	952.08	1540.5	8924
710	952.23	1542.2	8878
711	952.38	1543.8	8837
712	952.52	1545.4	8908
713	952.67	1547.1	8838
714	952.82	1548.7	8845
715	952.97	1550.3	8778
716	953.12	1552	8759
717	953.27	1553.6	8766
718	953.41	1555.2	8761
719	953.56	1556.9	8765
720	953.71	1558.5	8693
721	953.86	1560.1	8690
722	954.01	1561.7	8613
723	954.15	1563.4	8653
724	954.3	1565	8554
725	954.45	1566.6	8572
726	954.6	1568.2	8565
727	954.75	1569.9	8558
728	954.89	1571.5	8558
729	955.04	1573.1	8448
730	955.19	1574.7	8477
731	955.34	1576.4	8477
732	955.49	1578	8487
733	955.63	1579.6	8449
734	955.78	1581.2	8393
735	955.93	1582.8	8306
736	956.08	1584.4	8420
737	956.22	1586.1	8274
738	956.37	1587.7	8292
739	956.52	1589.3	8260
740	956.67	1590.9	8316
741	956.81	1592.5	8275
742	956.96	1594.1	8288
743	957.11	1595.7	8206
744	957.26	1597.3	8217
745	957.4	1598.9	8252
746	957.55	1600.6	8131
747	957.7	1602.2	8208
748	957.85	1603.8	8099
749	957.99	1605.4	8077
750	958.14	1607	8116
751	958.29	1608.6	8093
752	958.43	1610.2	8060
753	958.58	1611.8	7988
754	958.73	1613.4	8012
755	958.88	1615	7992
756	959.02	1616.6	7972
757	959.17	1618.2	8002
758	959.32	1619.8	7993
759	959.46	1621.4	7952
760	959.61	1623	7905
761	959.76	1624.6	7947
762	959.9	1626.1	7893
763	960.05	1627.7	7852
764	960.2	1629.3	7835
765	960.34	1630.9	7837
766	960.49	1632.5	7812
767	960.64	1634.1	7758
768	960.78	1635.7	7732
769	960.93	1637.3	7669
770	961.08	1638.9	7677
771	961.22	1640.4	7655
772	961.37	1642	7623
773	961.52	1643.6	7586
774	961.66	1645.2	7616
775	961.81	1646.8	7559
776	961.96	1648.4	7578
777	962.1	1649.9	7605
778	962.25	1651.5	7575
779	962.39	1653.1	7582
780	962.54	1654.7	7502
781	962.69	1656.3	7445
782	962.83	1657.8	7467
783	962.98	1659.4	7436
784	963.12	1661	7418
785	963.27	1662.5	7450
786	963.42	1664.1	7337
787	963.56	1665.7	7302
788	963.71	1667.3	7324
789	963.85	1668.8	7333
790	964	1670.4	7264
791	964.15	1672	7242
792	964.29	1673.5	7248
793	964.44	1675.1	7224
794	964.58	1676.7	7161
795	964.73	1678.2	7126
796	964.87	1679.8	7251
797	965.02	1681.4	7155
798	965.16	1682.9	7095
799	965.31	1684.5	7132
800	965.46	1686	7044
801	965.6	1687.6	7095
802	965.75	1689.2	7106
803	965.89	1690.7	6966
804	966.04	1692.3	6991
805	966.18	1693.8	6959
806	966.33	1695.4	6979
807	966.47	1696.9	6934
808	966.62	1698.5	6979
809	966.76	1700.1	6958
810	966.91	1701.6	6876
811	967.05	1703.2	6903
812	967.2	1704.7	6854
813	967.34	1706.3	6870
814	967.49	1707.8	6872
815	967.63	1709.4	6849
816	967.78	1710.9	6768
817	967.92	1712.4	6809
818	968.07	1714	6772
819	968.21	1715.5	6737
820	968.36	1717.1	6737
821	968.5	1718.6	6723
822	968.65	1720.2	6689
823	968.79	1721.7	6707
824	968.93	1723.2	6631
825	969.08	1724.8	6618
826	969.22	1726.3	6656
827	969.37	1727.9	6576
828	969.51	1729.4	6543
829	969.66	1730.9	6562
830	969.8	1732.5	6540
831	969.95	1734	6518
832	970.09	1735.5	6547
833	970.23	1737.1	6436
834	970.38	1738.6	6425
835	970.52	1740.1	6423
836	970.67	1741.7	6353
837	970.81	1743.2	6369
838	970.95	1744.7	6340
839	971.1	1746.2	6313
840	971.24	1747.8	6274
841	971.39	1749.3	6281
842	971.53	1750.8	6282
843	971.67	1752.3	6263
844	971.82	1753.9	6208
845	971.96	1755.4	6282
846	972.11	1756.9	6214
847	972.25	1758.4	6121
848	972.39	1759.9	6121
849	972.54	1761.5	6140
850	972.68	1763	6131
851	972.82	1764.5	6051
852	972.97	1766	6063
853	973.11	1767.5	6053
854	973.25	1769	5950
855	973.4	1770.6	5971
856	973.54	1772.1	5976
857	973.68	1773.6	5941
858	973.83	1775.1	5948
859	973.97	1776.6	5910
860	974.11	1778.1	5882
861	974.26	1779.6	5863
862	974.4	1781.1	5881
863	974.54	1782.6	5825
864	974.69	1784.1	5803
865	974.83	1785.7	5840
866	974.97	1787.2	5790
867	975.12	1788.7	5731
868	975.26	1790.2	5689
869	975.4	1791.7	5715
870	975.54	1793.2	5699
871	975.69	1794.7	5663
872	975.83	1796.2	5712
873	975.97	1797.7	5621
874	976.12	1799.2	5545
875	976.26	1800.7	5596
876	976.4	1802.2	5605
877	976.54	1803.6	5546
878	976.69	1805.1	5555
879	976.83	1806.6	5551
880	976.97	1808.1	5513
881	977.11	1809.6	5428
882	977.26	1811.1	5433
883	977.4	1812.6	5433
884	977.54	1814.1	5376
885	977.68	1815.6	5436
886	977.82	1817.1	5374
887	977.97	1818.6	5337
888	978.11	1820	5260
889	978.25	1821.5	5291
890	978.39	1823	5195
891	978.53	1824.5	5198
892	978.68	1826	5243
893	978.82	1827.5	5230
894	978.96	1828.9	5196
895	979.1	1830.4	5136
896	979.24	1831.9	5138
897	979.39	1833.4	5090
898	979.53	1834.9	5031
899	979.67	1836.3	5073
900	979.81	1837.8	5071
901	979.95	1839.3	5038
902	980.09	1840.8	5025
903	980.24	1842.2	5022
904	980.38	1843.7	4944
905	980.52	1845.2	4971
906	980.66	1846.6	4898
907	980.8	1848.1	4940
908	980.94	1849.6	4918
909	981.08	1851	4894
910	981.23	1852.5	4872
911	981.37	1854	4872
912	981.51	1855.4	4817
913	981.65	1856.9	4772
914	981.79	1858.4	4804
915	981.93	1859.8	4762
916	982.07	1861.3	4786
917	982.21	1862.8	4784
918	982.35	1864.2	4776
919	982.5	1865.7	4738
920	982.64	1867.1	4764
921	982.78	1868.6	4689
922	982.92	1870.1	4659
923	983.06	1871.5	4634
924	983.2	1873	4651
925	983.34	1874.4	4647
926	983.48	1875.9	4612
927	983.62	1877.3	4620
928	983.76	1878.8	4611
929	983.9	1880.2	4591
930	984.04	1881.7	4567
931	984.18	1883.1	4542
932	984.32	1884.6	4548
933	984.46	1886	4536
934	984.6	1887.5	4519
935	984.74	1888.9	4504
936	984.88	1890.4	4481
937	985.02	1891.8	4488
938	985.16	1893.3	4428
939	985.3	1894.7	4447
940	985.45	1896.2	4432
941	985.59	1897.6	4417
942	985.73	1899	4411
943	985.86	1900.5	4378
944	986	1901.9	4386
945	986.14	1903.4	4384
946	986.28	1904.8	4347
947	986.42	1906.2	4349
948	986.56	1907.7	4298
949	986.7	1909.1	4308
950	986.84	1910.5	4284
951	986.98	1912	4252
952	987.12	1913.4	4235
953	987.26	1914.8	4273
954	987.4	1916.3	4255
955	987.54	1917.7	4202
956	987.68	1919.1	4129
957	987.82	1920.6	4169
958	987.96	1922	4169
959	988.1	1923.4	4172
960	988.24	1924.8	4088
961	988.38	1926.3	4147
962	988.52	1927.7	4078
963	988.66	1929.1	4069
964	988.79	1930.5	4068
965	988.93	1931.9	4028
966	989.07	1933.4	4005
967	989.21	1934.8	3997
968	989.35	1936.2	4035
969	989.49	1937.6	3974
970	989.63	1939	3981
971	989.77	1940.5	3951
972	989.91	1941.9	3932
973	990.04	1943.3	3909
974	990.18	1944.7	3872
975	990.32	1946.1	3864
976	990.46	1947.5	3876
977	990.6	1948.9	3871
978	990.74	1950.4	3880
979	990.88	1951.8	3821
980	991.01	1953.2	3848
981	991.15	1954.6	3832
982	991.29	1956	3797
983	991.43	1957.4	3797
984	991.57	1958.8	3769
985	991.71	1960.2	3783
986	991.84	1961.6	3680
987	991.98	1963	3759
988	992.12	1964.4	3725
989	992.26	1965.8	3683
990	992.4	1967.2	3723
991	992.53	1968.6	3672
992	992.67	1970	3712
993	992.81	1971.4	3729
994	992.95	1972.8	3655
995	993.08	1974.2	3659
996	993.22	1975.6	3639
997	993.36	1977	3596
998	993.5	1978.4	3601
999	993.64	1979.8	3618
1000	993.77	1981.2	3591
1001	993.91	1982.6	3567
1002	994.05	1984	3559
1003	994.19	1985.4	3565
1004	994.32	1986.8	3535
1005	994.46	1988.1	3550
1006	994.6	1989.5	3526
1007	994.73	1990.9	3511
1008	994.87	1992.3	3469
1009	995.01	1993.7	3515
1010	995.15	1995.1	3453
1011	995.28	1996.5	3455
1012	995.42	1997.8	3416
1013	995.56	1999.2	3467
1014	995.69	2000.6	3417
1015	995.83	2002	3426
1016	995.97	2003.4	3454
1017	996.1	2004.7	3416
1018	996.24	2006.1	3373
1019	996.38	2007.5	3407
1020	996.51	2008.9	3356
1021	996.65	2010.3	3329
1022	996.79	2011.6	3351
1023	996.92	2013	3339
1024	997.06	2014.4	3327
