Date: 2-26-2020    Time: 15:38:42
Integration time per accumulation is 10 sec.
File for binning: <none>
Shutter Mode:  Auto
Cosmic Ray Removal: no
Sum Frames: no
File for bkgd subtraction: <no background>
File for white light calibration: <no wl correction>
Savitsky-Golay Smooth: no
CCD temperature: -60 Celsius
Comment: <no comment>
Tune Laser: Off
Data mode:  Spectrum mode.  Full Vertical Bin
Number of accumulations per frame: 1
Number of frames: 1
Total seconds of CCD data acquisition: 10
Number of xpixels: 1024
Number of tracks per frame: 1
Calibration File: C:\CCD\Jason\Controller\Calibration\SpectralCalibration\Calibration Data\Calibration_7-27-10b.asc
Track shifts: 0
1	840.77	150.06	368
2	840.94	152.37	378
3	841.1	154.67	391
4	841.26	156.97	407
5	841.43	159.27	435
6	841.59	161.58	443
7	841.75	163.88	443
8	841.92	166.17	451
9	842.08	168.47	471
10	842.24	170.77	528
11	842.4	173.06	582
12	842.57	175.36	625
13	842.73	177.65	660
14	842.89	179.95	687
15	843.06	182.24	687
16	843.22	184.53	698
17	843.38	186.82	724
18	843.54	189.11	743
19	843.71	191.4	762
20	843.87	193.68	777
21	844.03	195.97	839
22	844.2	198.25	821
23	844.36	200.54	856
24	844.52	202.82	868
25	844.68	205.1	866
26	844.85	207.38	858
27	845.01	209.66	880
28	845.17	211.94	885
29	845.33	214.22	911
30	845.5	216.49	904
31	845.66	218.77	925
32	845.82	221.05	918
33	845.99	223.32	920
34	846.15	225.59	926
35	846.31	227.86	952
36	846.47	230.13	938
37	846.64	232.4	940
38	846.8	234.67	992
39	846.96	236.94	967
40	847.12	239.21	1002
41	847.29	241.47	1035
42	847.45	243.74	1025
43	847.61	246	1012
44	847.77	248.26	1030
45	847.94	250.53	1024
46	848.1	252.79	1031
47	848.26	255.05	1039
48	848.42	257.31	1069
49	848.59	259.56	1073
50	848.75	261.82	1124
51	848.91	264.08	1115
52	849.07	266.33	1147
53	849.24	268.58	1148
54	849.4	270.84	1156
55	849.56	273.09	1148
56	849.72	275.34	1133
57	849.89	277.59	1170
58	850.05	279.84	1173
59	850.21	282.09	1198
60	850.37	284.33	1196
61	850.54	286.58	1196
62	850.7	288.82	1188
63	850.86	291.07	1245
64	851.02	293.31	1251
65	851.19	295.55	1262
66	851.35	297.79	1274
67	851.51	300.03	1278
68	851.67	302.27	1260
69	851.84	304.51	1282
70	852	306.74	1290
71	852.16	308.98	1299
72	852.32	311.22	1317
73	852.49	313.45	1331
74	852.65	315.68	1353
75	852.81	317.91	1355
76	852.97	320.14	1361
77	853.13	322.37	1383
78	853.3	324.6	1362
79	853.46	326.83	1413
80	853.62	329.06	1411
81	853.78	331.28	1430
82	853.95	333.51	1432
83	854.11	335.73	1402
84	854.27	337.96	1440
85	854.43	340.18	1449
86	854.59	342.4	1490
87	854.76	344.62	1497
88	854.92	346.84	1503
89	855.08	349.05	1481
90	855.24	351.27	1498
91	855.41	353.49	1557
92	855.57	355.7	1545
93	855.73	357.92	1561
94	855.89	360.13	1520
95	856.05	362.34	1571
96	856.22	364.55	1595
97	856.38	366.76	1614
98	856.54	368.97	1636
99	856.7	371.18	1625
100	856.86	373.39	1635
101	857.03	375.59	1627
102	857.19	377.8	1665
103	857.35	380	1655
104	857.51	382.2	1663
105	857.67	384.41	1696
106	857.84	386.61	1698
107	858	388.81	1728
108	858.16	391.01	1743
109	858.32	393.2	1735
110	858.48	395.4	1735
111	858.64	397.6	1781
112	858.81	399.79	1785
113	858.97	401.99	1786
114	859.13	404.18	1822
115	859.29	406.37	1828
116	859.45	408.56	1801
117	859.62	410.75	1849
118	859.78	412.94	1894
119	859.94	415.13	1871
120	860.1	417.32	1881
121	860.26	419.5	1901
122	860.42	421.69	1885
123	860.59	423.87	1896
124	860.75	426.06	1935
125	860.91	428.24	1958
126	861.07	430.42	1960
127	861.23	432.6	1966
128	861.4	434.78	1971
129	861.56	436.96	2008
130	861.72	439.13	2016
131	861.88	441.31	2023
132	862.04	443.49	2028
133	862.2	445.66	2038
134	862.36	447.83	2049
135	862.53	450.01	2058
136	862.69	452.18	2086
137	862.85	454.35	2078
138	863.01	456.52	2090
139	863.17	458.69	2090
140	863.33	460.85	2124
141	863.5	463.02	2145
142	863.66	465.19	2136
143	863.82	467.35	2179
144	863.98	469.51	2179
145	864.14	471.68	2180
146	864.3	473.84	2225
147	864.46	476	2255
148	864.63	478.16	2229
149	864.79	480.32	2267
150	864.95	482.47	2265
151	865.11	484.63	2265
152	865.27	486.79	2281
153	865.43	488.94	2323
154	865.59	491.1	2279
155	865.76	493.25	2335
156	865.92	495.4	2326
157	866.08	497.55	2369
158	866.24	499.7	2364
159	866.4	501.85	2391
160	866.56	504	2387
161	866.72	506.14	2371
162	866.88	508.29	2389
163	867.05	510.43	2397
164	867.21	512.58	2382
165	867.37	514.72	2446
166	867.53	516.86	2454
167	867.69	519	2471
168	867.85	521.14	2466
169	868.01	523.28	2476
170	868.17	525.42	2480
171	868.33	527.56	2513
172	868.5	529.69	2507
173	868.66	531.83	2528
174	868.82	533.96	2572
175	868.98	536.1	2537
176	869.14	538.23	2550
177	869.3	540.36	2613
178	869.46	542.49	2599
179	869.62	544.62	2589
180	869.78	546.75	2602
181	869.95	548.88	2616
182	870.11	551	2660
183	870.27	553.13	2649
184	870.43	555.25	2652
185	870.59	557.37	2629
186	870.75	559.5	2661
187	870.91	561.62	2657
188	871.07	563.74	2698
189	871.23	565.86	2649
190	871.39	567.98	2701
191	871.55	570.09	2700
192	871.71	572.21	2728
193	871.88	574.33	2720
194	872.04	576.44	2760
195	872.2	578.55	2754
196	872.36	580.67	2793
197	872.52	582.78	2789
198	872.68	584.89	2805
199	872.84	587	2792
200	873	589.11	2798
201	873.16	591.22	2784
202	873.32	593.32	2830
203	873.48	595.43	2822
204	873.64	597.53	2893
205	873.8	599.64	2870
206	873.96	601.74	2872
207	874.12	603.84	2863
208	874.29	605.94	2896
209	874.45	608.04	2884
210	874.61	610.14	2907
211	874.77	612.24	2913
212	874.93	614.34	2896
213	875.09	616.43	2925
214	875.25	618.53	2922
215	875.41	620.62	2944
216	875.57	622.72	2939
217	875.73	624.81	2944
218	875.89	626.9	2938
219	876.05	628.99	2886
220	876.21	631.08	2921
221	876.37	633.17	2954
222	876.53	635.26	2903
223	876.69	637.34	3003
224	876.85	639.43	2987
225	877.01	641.51	2972
226	877.17	643.6	3004
227	877.33	645.68	3001
228	877.49	647.76	3000
229	877.65	649.84	3047
230	877.81	651.92	3056
231	877.97	654	3079
232	878.13	656.08	3093
233	878.29	658.15	3087
234	878.45	660.23	3050
235	878.61	662.3	3063
236	878.78	664.38	3105
237	878.94	666.45	3050
238	879.1	668.52	3068
239	879.26	670.59	3074
240	879.42	672.66	3113
241	879.58	674.73	3114
242	879.74	676.8	3115
243	879.9	678.87	3053
244	880.06	680.93	3103
245	880.22	683	3105
246	880.38	685.06	3113
247	880.54	687.13	3113
248	880.7	689.19	3108
249	880.86	691.25	3153
250	881.02	693.31	3133
251	881.17	695.37	3157
252	881.33	697.43	3156
253	881.49	699.49	3169
254	881.65	701.54	3175
255	881.81	703.6	3197
256	881.97	705.65	3208
257	882.13	707.71	3181
258	882.29	709.76	3178
259	882.45	711.81	3172
260	882.61	713.86	3191
261	882.77	715.91	3192
262	882.93	717.96	3228
263	883.09	720.01	3177
264	883.25	722.05	3214
265	883.41	724.1	3255
266	883.57	726.15	3244
267	883.73	728.19	3233
268	883.89	730.23	3282
269	884.05	732.28	3257
270	884.21	734.32	3241
271	884.37	736.36	3260
272	884.53	738.4	3228
273	884.69	740.43	3250
274	884.85	742.47	3314
275	885.01	744.51	3269
276	885.17	746.54	3282
277	885.33	748.58	3292
278	885.49	750.61	3244
279	885.64	752.64	3287
280	885.8	754.67	3299
281	885.96	756.71	3293
282	886.12	758.74	3283
283	886.28	760.76	3264
284	886.44	762.79	3268
285	886.6	764.82	3308
286	886.76	766.84	3298
287	886.92	768.87	3313
288	887.08	770.89	3289
289	887.24	772.92	3307
290	887.4	774.94	3306
291	887.56	776.96	3314
292	887.72	778.98	3286
293	887.87	781	3314
294	888.03	783.02	3295
295	888.19	785.03	3328
296	888.35	787.05	3365
297	888.51	789.07	3373
298	888.67	791.08	3368
299	888.83	793.09	3372
300	888.99	795.11	3394
301	889.15	797.12	3342
302	889.31	799.13	3400
303	889.46	801.14	3393
304	889.62	803.15	3375
305	889.78	805.15	3393
306	889.94	807.16	3397
307	890.1	809.17	3367
308	890.26	811.17	3369
309	890.42	813.17	3398
310	890.58	815.18	3406
311	890.74	817.18	3394
312	890.89	819.18	3400
313	891.05	821.18	3368
314	891.21	823.18	3441
315	891.37	825.18	3397
316	891.53	827.17	3393
317	891.69	829.17	3418
318	891.85	831.17	3415
319	892.01	833.16	3413
320	892.16	835.15	3434
321	892.32	837.15	3427
322	892.48	839.14	3468
323	892.64	841.13	3426
324	892.8	843.12	3432
325	892.96	845.11	3392
326	893.12	847.09	3407
327	893.27	849.08	3451
328	893.43	851.07	3436
329	893.59	853.05	3455
330	893.75	855.04	3398
331	893.91	857.02	3412
332	894.07	859	3442
333	894.22	860.98	3472
334	894.38	862.96	3471
335	894.54	864.94	3476
336	894.7	866.92	3483
337	894.86	868.9	3468
338	895.02	870.87	3506
339	895.17	872.85	3532
340	895.33	874.82	3507
341	895.49	876.8	3490
342	895.65	878.77	3527
343	895.81	880.74	3481
344	895.97	882.71	3467
345	896.12	884.68	3492
346	896.28	886.65	3489
347	896.44	888.62	3501
348	896.6	890.59	3478
349	896.76	892.55	3550
350	896.91	894.52	3517
351	897.07	896.48	3519
352	897.23	898.44	3529
353	897.39	900.41	3498
354	897.55	902.37	3507
355	897.7	904.33	3499
356	897.86	906.29	3497
357	898.02	908.24	3511
358	898.18	910.2	3469
359	898.34	912.16	3491
360	898.49	914.11	3528
361	898.65	916.07	3499
362	898.81	918.02	3510
363	898.97	919.98	3494
364	899.12	921.93	3511
365	899.28	923.88	3534
366	899.44	925.83	3537
367	899.6	927.78	3509
368	899.76	929.73	3536
369	899.91	931.67	3494
370	900.07	933.62	3540
371	900.23	935.56	3475
372	900.39	937.51	3512
373	900.54	939.45	3485
374	900.7	941.39	3492
375	900.86	943.34	3497
376	901.02	945.28	3506
377	901.17	947.22	3534
378	901.33	949.15	3474
379	901.49	951.09	3500
380	901.65	953.03	3507
381	901.8	954.96	3550
382	901.96	956.9	3506
383	902.12	958.83	3512
384	902.28	960.77	3506
385	902.43	962.7	3483
386	902.59	964.63	3456
387	902.75	966.56	3483
388	902.9	968.49	3451
389	903.06	970.42	3524
390	903.22	972.34	3492
391	903.38	974.27	3412
392	903.53	976.2	3483
393	903.69	978.12	3494
394	903.85	980.05	3476
395	904	981.97	3440
396	904.16	983.89	3484
397	904.32	985.81	3455
398	904.48	987.73	3497
399	904.63	989.65	3471
400	904.79	991.57	3494
401	904.95	993.48	3460
402	905.1	995.4	3443
403	905.26	997.32	3488
404	905.42	999.23	3470
405	905.57	1001.1	3460
406	905.73	1003.1	3494
407	905.89	1005	3481
408	906.05	1006.9	3493
409	906.2	1008.8	3476
410	906.36	1010.7	3544
411	906.52	1012.6	3509
412	906.67	1014.5	3493
413	906.83	1016.4	3482
414	906.99	1018.3	3463
415	907.14	1020.2	3495
416	907.3	1022.1	3470
417	907.46	1024	3479
418	907.61	1025.9	3483
419	907.77	1027.8	3498
420	907.93	1029.7	3465
421	908.08	1031.6	3471
422	908.24	1033.5	3486
423	908.39	1035.4	3477
424	908.55	1037.3	3457
425	908.71	1039.2	3460
426	908.86	1041.1	3462
427	909.02	1043	3458
428	909.18	1044.9	3447
429	909.33	1046.8	3423
430	909.49	1048.7	3465
431	909.65	1050.6	3418
432	909.8	1052.5	3431
433	909.96	1054.3	3438
434	910.11	1056.2	3426
435	910.27	1058.1	3428
436	910.43	1060	3447
437	910.58	1061.9	3450
438	910.74	1063.8	3461
439	910.9	1065.6	3447
440	911.05	1067.5	3455
441	911.21	1069.4	3407
442	911.36	1071.3	3437
443	911.52	1073.2	3409
444	911.68	1075	3405
445	911.83	1076.9	3433
446	911.99	1078.8	3407
447	912.14	1080.7	3413
448	912.3	1082.5	3449
449	912.46	1084.4	3402
450	912.61	1086.3	3429
451	912.77	1088.2	3431
452	912.92	1090	3374
453	913.08	1091.9	3416
454	913.23	1093.8	3341
455	913.39	1095.6	3369
456	913.55	1097.5	3366
457	913.7	1099.4	3385
458	913.86	1101.2	3386
459	914.01	1103.1	3366
460	914.17	1105	3373
461	914.32	1106.8	3335
462	914.48	1108.7	3352
463	914.64	1110.5	3341
464	914.79	1112.4	3362
465	914.95	1114.2	3342
466	915.1	1116.1	3344
467	915.26	1118	3339
468	915.41	1119.8	3324
469	915.57	1121.7	3322
470	915.72	1123.5	3317
471	915.88	1125.4	3331
472	916.03	1127.2	3352
473	916.19	1129.1	3277
474	916.34	1130.9	3309
475	916.5	1132.8	3309
476	916.65	1134.6	3302
477	916.81	1136.5	3284
478	916.97	1138.3	3263
479	917.12	1140.2	3314
480	917.28	1142	3319
481	917.43	1143.8	3291
482	917.59	1145.7	3291
483	917.74	1147.5	3284
484	917.9	1149.4	3310
485	918.05	1151.2	3349
486	918.21	1153.1	3293
487	918.36	1154.9	3303
488	918.52	1156.7	3268
489	918.67	1158.6	3314
490	918.83	1160.4	3281
491	918.98	1162.2	3292
492	919.14	1164.1	3234
493	919.29	1165.9	3247
494	919.44	1167.7	3253
495	919.6	1169.6	3226
496	919.75	1171.4	3238
497	919.91	1173.2	3240
498	920.06	1175	3269
499	920.22	1176.9	3198
500	920.37	1178.7	3201
501	920.53	1180.5	3242
502	920.68	1182.3	3171
503	920.84	1184.2	3235
504	920.99	1186	3192
505	921.15	1187.8	3183
506	921.3	1189.6	3193
507	921.45	1191.4	3200
508	921.61	1193.3	3211
509	921.76	1195.1	3214
510	921.92	1196.9	3197
511	922.07	1198.7	3204
512	922.23	1200.5	3157
513	922.38	1202.3	3184
514	922.54	1204.2	3226
515	922.69	1206	3176
516	922.84	1207.8	3176
517	923	1209.6	3159
518	923.15	1211.4	3156
519	923.31	1213.2	3147
520	923.46	1215	3168
521	923.61	1216.8	3190
522	923.77	1218.6	3186
523	923.92	1220.4	3189
524	924.08	1222.2	3221
525	924.23	1224	3160
526	924.38	1225.8	3160
527	924.54	1227.6	3184
528	924.69	1229.4	3190
529	924.85	1231.2	3154
530	925	1233	3168
531	925.15	1234.8	3168
532	925.31	1236.6	3190
533	925.46	1238.4	3128
534	925.61	1240.2	3179
535	925.77	1242	3152
536	925.92	1243.8	3166
537	926.08	1245.6	3177
538	926.23	1247.4	3139
539	926.38	1249.2	3123
540	926.54	1251	3108
541	926.69	1252.8	3125
542	926.84	1254.6	3099
543	927	1256.3	3171
544	927.15	1258.1	3133
545	927.3	1259.9	3118
546	927.46	1261.7	3140
547	927.61	1263.5	3126
548	927.76	1265.3	3103
549	927.92	1267	3126
550	928.07	1268.8	3130
551	928.22	1270.6	3077
552	928.38	1272.4	3093
553	928.53	1274.2	3108
554	928.68	1275.9	3062
555	928.84	1277.7	3079
556	928.99	1279.5	3100
557	929.14	1281.3	3080
558	929.3	1283	3064
559	929.45	1284.8	3046
560	929.6	1286.6	3045
561	929.76	1288.3	3080
562	929.91	1290.1	3065
563	930.06	1291.9	3061
564	930.21	1293.6	3076
565	930.37	1295.4	3049
566	930.52	1297.2	3053
567	930.67	1298.9	3034
568	930.83	1300.7	3006
569	930.98	1302.5	3093
570	931.13	1304.2	3016
571	931.28	1306	3027
572	931.44	1307.8	3022
573	931.59	1309.5	3011
574	931.74	1311.3	3015
575	931.9	1313	3028
576	932.05	1314.8	3023
577	932.2	1316.5	3009
578	932.35	1318.3	2992
579	932.51	1320.1	3001
580	932.66	1321.8	2962
581	932.81	1323.6	2965
582	932.96	1325.3	3017
583	933.11	1327.1	3006
584	933.27	1328.8	2993
585	933.42	1330.6	2974
586	933.57	1332.3	3020
587	933.72	1334.1	2980
588	933.88	1335.8	2978
589	934.03	1337.5	2963
590	934.18	1339.3	2982
591	934.33	1341	2964
592	934.49	1342.8	2951
593	934.64	1344.5	2912
594	934.79	1346.3	2944
595	934.94	1348	2946
596	935.09	1349.7	2881
597	935.25	1351.5	2909
598	935.4	1353.2	2931
599	935.55	1354.9	2887
600	935.7	1356.7	2903
601	935.85	1358.4	2872
602	936.01	1360.2	2906
603	936.16	1361.9	2920
604	936.31	1363.6	2885
605	936.46	1365.3	2884
606	936.61	1367.1	2888
607	936.76	1368.8	2906
608	936.92	1370.5	2901
609	937.07	1372.3	2874
610	937.22	1374	2875
611	937.37	1375.7	2849
612	937.52	1377.4	2872
613	937.67	1379.2	2871
614	937.83	1380.9	2855
615	937.98	1382.6	2803
616	938.13	1384.3	2829
617	938.28	1386	2856
618	938.43	1387.8	2859
619	938.58	1389.5	2850
620	938.73	1391.2	2859
621	938.88	1392.9	2831
622	939.04	1394.6	2834
623	939.19	1396.3	2801
624	939.34	1398.1	2799
625	939.49	1399.8	2789
626	939.64	1401.5	2828
627	939.79	1403.2	2744
628	939.94	1404.9	2796
629	940.09	1406.6	2804
630	940.25	1408.3	2804
631	940.4	1410	2806
632	940.55	1411.7	2754
633	940.7	1413.4	2793
634	940.85	1415.2	2804
635	941	1416.9	2756
636	941.15	1418.6	2809
637	941.3	1420.3	2802
638	941.45	1422	2827
639	941.6	1423.7	2827
640	941.75	1425.4	2758
641	941.9	1427.1	2789
642	942.06	1428.8	2722
643	942.21	1430.5	2743
644	942.36	1432.2	2770
645	942.51	1433.9	2740
646	942.66	1435.5	2734
647	942.81	1437.2	2694
648	942.96	1438.9	2689
649	943.11	1440.6	2664
650	943.26	1442.3	2656
651	943.41	1444	2700
652	943.56	1445.7	2637
653	943.71	1447.4	2665
654	943.86	1449.1	2637
655	944.01	1450.8	2624
656	944.16	1452.4	2623
657	944.31	1454.1	2638
658	944.46	1455.8	2629
659	944.61	1457.5	2630
660	944.76	1459.2	2621
661	944.91	1460.9	2603
662	945.06	1462.5	2577
663	945.21	1464.2	2620
664	945.36	1465.9	2612
665	945.51	1467.6	2569
666	945.66	1469.2	2549
667	945.81	1470.9	2577
668	945.96	1472.6	2574
669	946.11	1474.3	2576
670	946.26	1475.9	2558
671	946.41	1477.6	2596
672	946.56	1479.3	2568
673	946.71	1481	2568
674	946.86	1482.6	2567
675	947.01	1484.3	2536
676	947.16	1486	2545
677	947.31	1487.6	2528
678	947.46	1489.3	2492
679	947.61	1491	2574
680	947.76	1492.6	2533
681	947.91	1494.3	2511
682	948.06	1496	2503
683	948.21	1497.6	2510
684	948.36	1499.3	2521
685	948.5	1500.9	2452
686	948.65	1502.6	2496
687	948.8	1504.3	2463
688	948.95	1505.9	2462
689	949.1	1507.6	2480
690	949.25	1509.2	2484
691	949.4	1510.9	2447
692	949.55	1512.5	2454
693	949.7	1514.2	2427
694	949.85	1515.8	2429
695	950	1517.5	2425
696	950.14	1519.1	2420
697	950.29	1520.8	2421
698	950.44	1522.4	2427
699	950.59	1524.1	2427
700	950.74	1525.7	2386
701	950.89	1527.4	2375
702	951.04	1529	2385
703	951.19	1530.7	2354
704	951.34	1532.3	2360
705	951.48	1534	2386
706	951.63	1535.6	2377
707	951.78	1537.2	2379
708	951.93	1538.9	2341
709	952.08	1540.5	2399
710	952.23	1542.2	2347
711	952.38	1543.8	2374
712	952.52	1545.4	2376
713	952.67	1547.1	2360
714	952.82	1548.7	2370
715	952.97	1550.3	2354
716	953.12	1552	2340
717	953.27	1553.6	2335
718	953.41	1555.2	2306
719	953.56	1556.9	2302
720	953.71	1558.5	2291
721	953.86	1560.1	2297
722	954.01	1561.7	2285
723	954.15	1563.4	2282
724	954.3	1565	2258
725	954.45	1566.6	2270
726	954.6	1568.2	2267
727	954.75	1569.9	2229
728	954.89	1571.5	2253
729	955.04	1573.1	2256
730	955.19	1574.7	2230
731	955.34	1576.4	2221
732	955.49	1578	2217
733	955.63	1579.6	2202
734	955.78	1581.2	2249
735	955.93	1582.8	2234
736	956.08	1584.4	2223
737	956.22	1586.1	2207
738	956.37	1587.7	2202
739	956.52	1589.3	2222
740	956.67	1590.9	2238
741	956.81	1592.5	2182
742	956.96	1594.1	2180
743	957.11	1595.7	2186
744	957.26	1597.3	2162
745	957.4	1598.9	2170
746	957.55	1600.6	2134
747	957.7	1602.2	2162
748	957.85	1603.8	2145
749	957.99	1605.4	2137
750	958.14	1607	2114
751	958.29	1608.6	2127
752	958.43	1610.2	2122
753	958.58	1611.8	2113
754	958.73	1613.4	2127
755	958.88	1615	2124
756	959.02	1616.6	2098
757	959.17	1618.2	2097
758	959.32	1619.8	2138
759	959.46	1621.4	2103
760	959.61	1623	2105
761	959.76	1624.6	2086
762	959.9	1626.1	2100
763	960.05	1627.7	2079
764	960.2	1629.3	2089
765	960.34	1630.9	2080
766	960.49	1632.5	2046
767	960.64	1634.1	2051
768	960.78	1635.7	2056
769	960.93	1637.3	2030
770	961.08	1638.9	2056
771	961.22	1640.4	2074
772	961.37	1642	2055
773	961.52	1643.6	2012
774	961.66	1645.2	2025
775	961.81	1646.8	2023
776	961.96	1648.4	2011
777	962.1	1649.9	2019
778	962.25	1651.5	2000
779	962.39	1653.1	1997
780	962.54	1654.7	2008
781	962.69	1656.3	1962
782	962.83	1657.8	1991
783	962.98	1659.4	1967
784	963.12	1661	1961
785	963.27	1662.5	1953
786	963.42	1664.1	1959
787	963.56	1665.7	1953
788	963.71	1667.3	1971
789	963.85	1668.8	1931
790	964	1670.4	1941
791	964.15	1672	1905
792	964.29	1673.5	1898
793	964.44	1675.1	1915
794	964.58	1676.7	1939
795	964.73	1678.2	1927
796	964.87	1679.8	1915
797	965.02	1681.4	1893
798	965.16	1682.9	1886
799	965.31	1684.5	1885
800	965.46	1686	1870
801	965.6	1687.6	1892
802	965.75	1689.2	1848
803	965.89	1690.7	1863
804	966.04	1692.3	1880
805	966.18	1693.8	1888
806	966.33	1695.4	1850
807	966.47	1696.9	1809
808	966.62	1698.5	1828
809	966.76	1700.1	1830
810	966.91	1701.6	1854
811	967.05	1703.2	1831
812	967.2	1704.7	1809
813	967.34	1706.3	1831
814	967.49	1707.8	1837
815	967.63	1709.4	1802
816	967.78	1710.9	1833
817	967.92	1712.4	1828
818	968.07	1714	1808
819	968.21	1715.5	1778
820	968.36	1717.1	1787
821	968.5	1718.6	1801
822	968.65	1720.2	1781
823	968.79	1721.7	1775
824	968.93	1723.2	1765
825	969.08	1724.8	1783
826	969.22	1726.3	1795
827	969.37	1727.9	1746
828	969.51	1729.4	1749
829	969.66	1730.9	1770
830	969.8	1732.5	1746
831	969.95	1734	1756
832	970.09	1735.5	1756
833	970.23	1737.1	1719
834	970.38	1738.6	1744
835	970.52	1740.1	1730
836	970.67	1741.7	1711
837	970.81	1743.2	1697
838	970.95	1744.7	1694
839	971.1	1746.2	1681
840	971.24	1747.8	1695
841	971.39	1749.3	1691
842	971.53	1750.8	1692
843	971.67	1752.3	1700
844	971.82	1753.9	1648
845	971.96	1755.4	1647
846	972.11	1756.9	1655
847	972.25	1758.4	1664
848	972.39	1759.9	1664
849	972.54	1761.5	1643
850	972.68	1763	1643
851	972.82	1764.5	1627
852	972.97	1766	1638
853	973.11	1767.5	1644
854	973.25	1769	1616
855	973.4	1770.6	1617
856	973.54	1772.1	1623
857	973.68	1773.6	1609
858	973.83	1775.1	1608
859	973.97	1776.6	1603
860	974.11	1778.1	1625
861	974.26	1779.6	1598
862	974.4	1781.1	1593
863	974.54	1782.6	1588
864	974.69	1784.1	1600
865	974.83	1785.7	1587
866	974.97	1787.2	1557
867	975.12	1788.7	1565
868	975.26	1790.2	1578
869	975.4	1791.7	1562
870	975.54	1793.2	1551
871	975.69	1794.7	1564
872	975.83	1796.2	1577
873	975.97	1797.7	1536
874	976.12	1799.2	1503
875	976.26	1800.7	1537
876	976.4	1802.2	1541
877	976.54	1803.6	1535
878	976.69	1805.1	1513
879	976.83	1806.6	1512
880	976.97	1808.1	1530
881	977.11	1809.6	1527
882	977.26	1811.1	1536
883	977.4	1812.6	1508
884	977.54	1814.1	1495
885	977.68	1815.6	1485
886	977.82	1817.1	1482
887	977.97	1818.6	1467
888	978.11	1820	1455
889	978.25	1821.5	1469
890	978.39	1823	1486
891	978.53	1824.5	1463
892	978.68	1826	1472
893	978.82	1827.5	1460
894	978.96	1828.9	1470
895	979.1	1830.4	1448
896	979.24	1831.9	1446
897	979.39	1833.4	1422
898	979.53	1834.9	1418
899	979.67	1836.3	1438
900	979.81	1837.8	1429
901	979.95	1839.3	1442
902	980.09	1840.8	1414
903	980.24	1842.2	1432
904	980.38	1843.7	1406
905	980.52	1845.2	1379
906	980.66	1846.6	1404
907	980.8	1848.1	1423
908	980.94	1849.6	1390
909	981.08	1851	1395
910	981.23	1852.5	1366
911	981.37	1854	1395
912	981.51	1855.4	1353
913	981.65	1856.9	1369
914	981.79	1858.4	1371
915	981.93	1859.8	1355
916	982.07	1861.3	1345
917	982.21	1862.8	1341
918	982.35	1864.2	1357
919	982.5	1865.7	1353
920	982.64	1867.1	1376
921	982.78	1868.6	1366
922	982.92	1870.1	1336
923	983.06	1871.5	1340
924	983.2	1873	1338
925	983.34	1874.4	1328
926	983.48	1875.9	1333
927	983.62	1877.3	1315
928	983.76	1878.8	1325
929	983.9	1880.2	1316
930	984.04	1881.7	1309
931	984.18	1883.1	1299
932	984.32	1884.6	1298
933	984.46	1886	1324
934	984.6	1887.5	1308
935	984.74	1888.9	1313
936	984.88	1890.4	1303
937	985.02	1891.8	1296
938	985.16	1893.3	1301
939	985.3	1894.7	1304
940	985.45	1896.2	1305
941	985.59	1897.6	1277
942	985.73	1899	1279
943	985.86	1900.5	1274
944	986	1901.9	1257
945	986.14	1903.4	1255
946	986.28	1904.8	1262
947	986.42	1906.2	1260
948	986.56	1907.7	1264
949	986.7	1909.1	1258
950	986.84	1910.5	1259
951	986.98	1912	1238
952	987.12	1913.4	1236
953	987.26	1914.8	1229
954	987.4	1916.3	1214
955	987.54	1917.7	1233
956	987.68	1919.1	1161
957	987.82	1920.6	1221
958	987.96	1922	1219
959	988.1	1923.4	1213
960	988.24	1924.8	1220
961	988.38	1926.3	1199
962	988.52	1927.7	1192
963	988.66	1929.1	1212
964	988.79	1930.5	1184
965	988.93	1931.9	1171
966	989.07	1933.4	1193
967	989.21	1934.8	1175
968	989.35	1936.2	1180
969	989.49	1937.6	1167
970	989.63	1939	1155
971	989.77	1940.5	1169
972	989.91	1941.9	1171
973	990.04	1943.3	1164
974	990.18	1944.7	1167
975	990.32	1946.1	1145
976	990.46	1947.5	1163
977	990.6	1948.9	1157
978	990.74	1950.4	1142
979	990.88	1951.8	1138
980	991.01	1953.2	1146
981	991.15	1954.6	1143
982	991.29	1956	1140
983	991.43	1957.4	1124
984	991.57	1958.8	1102
985	991.71	1960.2	1131
986	991.84	1961.6	1111
987	991.98	1963	1125
988	992.12	1964.4	1091
989	992.26	1965.8	1107
990	992.4	1967.2	1103
991	992.53	1968.6	1106
992	992.67	1970	1080
993	992.81	1971.4	1066
994	992.95	1972.8	1094
995	993.08	1974.2	1077
996	993.22	1975.6	1083
997	993.36	1977	1073
998	993.5	1978.4	1072
999	993.64	1979.8	1069
1000	993.77	1981.2	1051
1001	993.91	1982.6	1067
1002	994.05	1984	1063
1003	994.19	1985.4	1046
1004	994.32	1986.8	1057
1005	994.46	1988.1	1057
1006	994.6	1989.5	1058
1007	994.73	1990.9	1059
1008	994.87	1992.3	1036
1009	995.01	1993.7	1045
1010	995.15	1995.1	1029
1011	995.28	1996.5	1027
1012	995.42	1997.8	1046
1013	995.56	1999.2	1039
1014	995.69	2000.6	1033
1015	995.83	2002	1018
1016	995.97	2003.4	1017
1017	996.1	2004.7	1016
1018	996.24	2006.1	1007
1019	996.38	2007.5	1019
1020	996.51	2008.9	1012
1021	996.65	2010.3	1007
1022	996.79	2011.6	1007
1023	996.92	2013	998
1024	997.06	2014.4	991
