Date: 2-28-2020    Time: 11:59:34
Integration time per accumulation is 10 sec.
File for binning: <none>
Shutter Mode:  Auto
Cosmic Ray Removal: no
Sum Frames: no
File for bkgd subtraction: <no background>
File for white light calibration: <no wl correction>
Savitsky-Golay Smooth: no
CCD temperature: -60 Celsius
Comment: <no comment>
Tune Laser: Off
Data mode:  Spectrum mode.  Full Vertical Bin
Number of accumulations per frame: 1
Number of frames: 1
Total seconds of CCD data acquisition: 10
Number of xpixels: 1024
Number of tracks per frame: 1
Calibration File: C:\CCD\Jason\Controller\Calibration\SpectralCalibration\Calibration Data\Calibration_7-27-10b.asc
Track shifts: 0
1	840.77	150.06	381
2	840.94	152.37	386
3	841.1	154.67	407
4	841.26	156.97	427
5	841.43	159.27	439
6	841.59	161.58	463
7	841.75	163.88	467
8	841.92	166.17	477
9	842.08	168.47	524
10	842.24	170.77	561
11	842.4	173.06	623
12	842.57	175.36	696
13	842.73	177.65	733
14	842.89	179.95	770
15	843.06	182.24	793
16	843.22	184.53	783
17	843.38	186.82	808
18	843.54	189.11	838
19	843.71	191.4	884
20	843.87	193.68	900
21	844.03	195.97	931
22	844.2	198.25	942
23	844.36	200.54	958
24	844.52	202.82	977
25	844.68	205.1	983
26	844.85	207.38	999
27	845.01	209.66	1029
28	845.17	211.94	1052
29	845.33	214.22	1064
30	845.5	216.49	1063
31	845.66	218.77	1084
32	845.82	221.05	1114
33	845.99	223.32	1116
34	846.15	225.59	1123
35	846.31	227.86	1124
36	846.47	230.13	1145
37	846.64	232.4	1157
38	846.8	234.67	1181
39	846.96	236.94	1168
40	847.12	239.21	1203
41	847.29	241.47	1191
42	847.45	243.74	1200
43	847.61	246	1195
44	847.77	248.26	1186
45	847.94	250.53	1203
46	848.1	252.79	1233
47	848.26	255.05	1245
48	848.42	257.31	1236
49	848.59	259.56	1262
50	848.75	261.82	1311
51	848.91	264.08	1325
52	849.07	266.33	1277
53	849.24	268.58	1339
54	849.4	270.84	1362
55	849.56	273.09	1359
56	849.72	275.34	1364
57	849.89	277.59	1381
58	850.05	279.84	1404
59	850.21	282.09	1397
60	850.37	284.33	1418
61	850.54	286.58	1412
62	850.7	288.82	1413
63	850.86	291.07	1428
64	851.02	293.31	1441
65	851.19	295.55	1446
66	851.35	297.79	1503
67	851.51	300.03	1487
68	851.67	302.27	1511
69	851.84	304.51	1506
70	852	306.74	1495
71	852.16	308.98	1506
72	852.32	311.22	1544
73	852.49	313.45	1564
74	852.65	315.68	1603
75	852.81	317.91	1617
76	852.97	320.14	1599
77	853.13	322.37	1622
78	853.3	324.6	1646
79	853.46	326.83	1650
80	853.62	329.06	1677
81	853.78	331.28	1695
82	853.95	333.51	1703
83	854.11	335.73	1718
84	854.27	337.96	1734
85	854.43	340.18	1756
86	854.59	342.4	1754
87	854.76	344.62	1765
88	854.92	346.84	1780
89	855.08	349.05	1830
90	855.24	351.27	1833
91	855.41	353.49	1831
92	855.57	355.7	1873
93	855.73	357.92	1892
94	855.89	360.13	1882
95	856.05	362.34	1919
96	856.22	364.55	1969
97	856.38	366.76	1939
98	856.54	368.97	1934
99	856.7	371.18	1984
100	856.86	373.39	2004
101	857.03	375.59	2021
102	857.19	377.8	2030
103	857.35	380	2068
104	857.51	382.2	2051
105	857.67	384.41	2072
106	857.84	386.61	2124
107	858	388.81	2104
108	858.16	391.01	2165
109	858.32	393.2	2197
110	858.48	395.4	2191
111	858.64	397.6	2230
112	858.81	399.79	2259
113	858.97	401.99	2240
114	859.13	404.18	2238
115	859.29	406.37	2267
116	859.45	408.56	2294
117	859.62	410.75	2310
118	859.78	412.94	2333
119	859.94	415.13	2382
120	860.1	417.32	2340
121	860.26	419.5	2387
122	860.42	421.69	2412
123	860.59	423.87	2371
124	860.75	426.06	2412
125	860.91	428.24	2418
126	861.07	430.42	2453
127	861.23	432.6	2482
128	861.4	434.78	2507
129	861.56	436.96	2533
130	861.72	439.13	2524
131	861.88	441.31	2517
132	862.04	443.49	2549
133	862.2	445.66	2596
134	862.36	447.83	2601
135	862.53	450.01	2614
136	862.69	452.18	2614
137	862.85	454.35	2673
138	863.01	456.52	2686
139	863.17	458.69	2685
140	863.33	460.85	2701
141	863.5	463.02	2718
142	863.66	465.19	2716
143	863.82	467.35	2753
144	863.98	469.51	2786
145	864.14	471.68	2789
146	864.3	473.84	2766
147	864.46	476	2814
148	864.63	478.16	2853
149	864.79	480.32	2890
150	864.95	482.47	2918
151	865.11	484.63	2913
152	865.27	486.79	2954
153	865.43	488.94	2956
154	865.59	491.1	2989
155	865.76	493.25	2974
156	865.92	495.4	2997
157	866.08	497.55	3045
158	866.24	499.7	3007
159	866.4	501.85	3051
160	866.56	504	3049
161	866.72	506.14	3082
162	866.88	508.29	3109
163	867.05	510.43	3111
164	867.21	512.58	3160
165	867.37	514.72	3141
166	867.53	516.86	3199
167	867.69	519	3172
168	867.85	521.14	3212
169	868.01	523.28	3250
170	868.17	525.42	3255
171	868.33	527.56	3286
172	868.5	529.69	3313
173	868.66	531.83	3347
174	868.82	533.96	3340
175	868.98	536.1	3376
176	869.14	538.23	3409
177	869.3	540.36	3389
178	869.46	542.49	3413
179	869.62	544.62	3400
180	869.78	546.75	3429
181	869.95	548.88	3426
182	870.11	551	3471
183	870.27	553.13	3484
184	870.43	555.25	3528
185	870.59	557.37	3512
186	870.75	559.5	3533
187	870.91	561.62	3545
188	871.07	563.74	3592
189	871.23	565.86	3559
190	871.39	567.98	3598
191	871.55	570.09	3586
192	871.71	572.21	3642
193	871.88	574.33	3643
194	872.04	576.44	3663
195	872.2	578.55	3666
196	872.36	580.67	3700
197	872.52	582.78	3690
198	872.68	584.89	3725
199	872.84	587	3785
200	873	589.11	3792
201	873.16	591.22	3774
202	873.32	593.32	3789
203	873.48	595.43	3840
204	873.64	597.53	3876
205	873.8	599.64	3820
206	873.96	601.74	3897
207	874.12	603.84	3875
208	874.29	605.94	3919
209	874.45	608.04	3970
210	874.61	610.14	3926
211	874.77	612.24	3983
212	874.93	614.34	3994
213	875.09	616.43	4023
214	875.25	618.53	4102
215	875.41	620.62	4182
216	875.57	622.72	4205
217	875.73	624.81	4223
218	875.89	626.9	4219
219	876.05	628.99	4162
220	876.21	631.08	4211
221	876.37	633.17	4080
222	876.53	635.26	4172
223	876.69	637.34	4143
224	876.85	639.43	4172
225	877.01	641.51	4236
226	877.17	643.6	4177
227	877.33	645.68	4252
228	877.49	647.76	4225
229	877.65	649.84	4234
230	877.81	651.92	4302
231	877.97	654	4320
232	878.13	656.08	4305
233	878.29	658.15	4316
234	878.45	660.23	4365
235	878.61	662.3	4340
236	878.78	664.38	4395
237	878.94	666.45	4349
238	879.1	668.52	4364
239	879.26	670.59	4387
240	879.42	672.66	4409
241	879.58	674.73	4439
242	879.74	676.8	4436
243	879.9	678.87	4408
244	880.06	680.93	4427
245	880.22	683	4467
246	880.38	685.06	4446
247	880.54	687.13	4481
248	880.7	689.19	4467
249	880.86	691.25	4531
250	881.02	693.31	4464
251	881.17	695.37	4564
252	881.33	697.43	4560
253	881.49	699.49	4591
254	881.65	701.54	4614
255	881.81	703.6	4597
256	881.97	705.65	4605
257	882.13	707.71	4627
258	882.29	709.76	4630
259	882.45	711.81	4620
260	882.61	713.86	4640
261	882.77	715.91	4679
262	882.93	717.96	4678
263	883.09	720.01	4744
264	883.25	722.05	4706
265	883.41	724.1	4757
266	883.57	726.15	4765
267	883.73	728.19	4788
268	883.89	730.23	4818
269	884.05	732.28	4784
270	884.21	734.32	4783
271	884.37	736.36	4755
272	884.53	738.4	4806
273	884.69	740.43	4832
274	884.85	742.47	4862
275	885.01	744.51	4879
276	885.17	746.54	4931
277	885.33	748.58	4895
278	885.49	750.61	4889
279	885.64	752.64	4913
280	885.8	754.67	4929
281	885.96	756.71	4946
282	886.12	758.74	4958
283	886.28	760.76	4953
284	886.44	762.79	4956
285	886.6	764.82	4997
286	886.76	766.84	4984
287	886.92	768.87	5059
288	887.08	770.89	5034
289	887.24	772.92	5014
290	887.4	774.94	5042
291	887.56	776.96	5046
292	887.72	778.98	5028
293	887.87	781	5060
294	888.03	783.02	5077
295	888.19	785.03	5091
296	888.35	787.05	5124
297	888.51	789.07	5175
298	888.67	791.08	5183
299	888.83	793.09	5199
300	888.99	795.11	5229
301	889.15	797.12	5288
302	889.31	799.13	5234
303	889.46	801.14	5279
304	889.62	803.15	5268
305	889.78	805.15	5220
306	889.94	807.16	5246
307	890.1	809.17	5249
308	890.26	811.17	5239
309	890.42	813.17	5253
310	890.58	815.18	5256
311	890.74	817.18	5267
312	890.89	819.18	5201
313	891.05	821.18	5202
314	891.21	823.18	5265
315	891.37	825.18	5305
316	891.53	827.17	5221
317	891.69	829.17	5272
318	891.85	831.17	5323
319	892.01	833.16	5233
320	892.16	835.15	5312
321	892.32	837.15	5346
322	892.48	839.14	5297
323	892.64	841.13	5333
324	892.8	843.12	5369
325	892.96	845.11	5329
326	893.12	847.09	5392
327	893.27	849.08	5403
328	893.43	851.07	5380
329	893.59	853.05	5413
330	893.75	855.04	5405
331	893.91	857.02	5452
332	894.07	859	5431
333	894.22	860.98	5418
334	894.38	862.96	5453
335	894.54	864.94	5443
336	894.7	866.92	5469
337	894.86	868.9	5415
338	895.02	870.87	5429
339	895.17	872.85	5481
340	895.33	874.82	5515
341	895.49	876.8	5494
342	895.65	878.77	5455
343	895.81	880.74	5542
344	895.97	882.71	5542
345	896.12	884.68	5523
346	896.28	886.65	5453
347	896.44	888.62	5457
348	896.6	890.59	5514
349	896.76	892.55	5565
350	896.91	894.52	5575
351	897.07	896.48	5572
352	897.23	898.44	5543
353	897.39	900.41	5597
354	897.55	902.37	5565
355	897.7	904.33	5565
356	897.86	906.29	5594
357	898.02	908.24	5590
358	898.18	910.2	5570
359	898.34	912.16	5651
360	898.49	914.11	5575
361	898.65	916.07	5629
362	898.81	918.02	5559
363	898.97	919.98	5630
364	899.12	921.93	5638
365	899.28	923.88	5583
366	899.44	925.83	5637
367	899.6	927.78	5662
368	899.76	929.73	5614
369	899.91	931.67	5661
370	900.07	933.62	5697
371	900.23	935.56	5709
372	900.39	937.51	5613
373	900.54	939.45	5676
374	900.7	941.39	5684
375	900.86	943.34	5690
376	901.02	945.28	5668
377	901.17	947.22	5646
378	901.33	949.15	5621
379	901.49	951.09	5671
380	901.65	953.03	5632
381	901.8	954.96	5659
382	901.96	956.9	5637
383	902.12	958.83	5690
384	902.28	960.77	5655
385	902.43	962.7	5639
386	902.59	964.63	5595
387	902.75	966.56	5665
388	902.9	968.49	5623
389	903.06	970.42	5667
390	903.22	972.34	5635
391	903.38	974.27	5620
392	903.53	976.2	5624
393	903.69	978.12	5672
394	903.85	980.05	5627
395	904	981.97	5652
396	904.16	983.89	5667
397	904.32	985.81	5616
398	904.48	987.73	5680
399	904.63	989.65	5609
400	904.79	991.57	5663
401	904.95	993.48	5722
402	905.1	995.4	5748
403	905.26	997.32	5833
404	905.42	999.23	5870
405	905.57	1001.1	6078
406	905.73	1003.1	6402
407	905.89	1005	6654
408	906.05	1006.9	6709
409	906.2	1008.8	6484
410	906.36	1010.7	6195
411	906.52	1012.6	5977
412	906.67	1014.5	5883
413	906.83	1016.4	5807
414	906.99	1018.3	5721
415	907.14	1020.2	5767
416	907.3	1022.1	5746
417	907.46	1024	5728
418	907.61	1025.9	5721
419	907.77	1027.8	5712
420	907.93	1029.7	5781
421	908.08	1031.6	5821
422	908.24	1033.5	5901
423	908.39	1035.4	5894
424	908.55	1037.3	5931
425	908.71	1039.2	5877
426	908.86	1041.1	5926
427	909.02	1043	5762
428	909.18	1044.9	5741
429	909.33	1046.8	5718
430	909.49	1048.7	5677
431	909.65	1050.6	5735
432	909.8	1052.5	5632
433	909.96	1054.3	5608
434	910.11	1056.2	5687
435	910.27	1058.1	5668
436	910.43	1060	5630
437	910.58	1061.9	5660
438	910.74	1063.8	5674
439	910.9	1065.6	5688
440	911.05	1067.5	5733
441	911.21	1069.4	5735
442	911.36	1071.3	5735
443	911.52	1073.2	5673
444	911.68	1075	5663
445	911.83	1076.9	5689
446	911.99	1078.8	5719
447	912.14	1080.7	5717
448	912.3	1082.5	5723
449	912.46	1084.4	5693
450	912.61	1086.3	5721
451	912.77	1088.2	5713
452	912.92	1090	5651
453	913.08	1091.9	5667
454	913.23	1093.8	5630
455	913.39	1095.6	5664
456	913.55	1097.5	5675
457	913.7	1099.4	5632
458	913.86	1101.2	5654
459	914.01	1103.1	5599
460	914.17	1105	5612
461	914.32	1106.8	5626
462	914.48	1108.7	5585
463	914.64	1110.5	5691
464	914.79	1112.4	5670
465	914.95	1114.2	5562
466	915.1	1116.1	5613
467	915.26	1118	5548
468	915.41	1119.8	5560
469	915.57	1121.7	5585
470	915.72	1123.5	5568
471	915.88	1125.4	5557
472	916.03	1127.2	5537
473	916.19	1129.1	5603
474	916.34	1130.9	5591
475	916.5	1132.8	5584
476	916.65	1134.6	5573
477	916.81	1136.5	5607
478	916.97	1138.3	5552
479	917.12	1140.2	5550
480	917.28	1142	5543
481	917.43	1143.8	5552
482	917.59	1145.7	5574
483	917.74	1147.5	5547
484	917.9	1149.4	5618
485	918.05	1151.2	5609
486	918.21	1153.1	5615
487	918.36	1154.9	5602
488	918.52	1156.7	5636
489	918.67	1158.6	5603
490	918.83	1160.4	5678
491	918.98	1162.2	5644
492	919.14	1164.1	5702
493	919.29	1165.9	5636
494	919.44	1167.7	5609
495	919.6	1169.6	5585
496	919.75	1171.4	5571
497	919.91	1173.2	5610
498	920.06	1175	5615
499	920.22	1176.9	5572
500	920.37	1178.7	5538
501	920.53	1180.5	5623
502	920.68	1182.3	5586
503	920.84	1184.2	5622
504	920.99	1186	5651
505	921.15	1187.8	5707
506	921.3	1189.6	5713
507	921.45	1191.4	5674
508	921.61	1193.3	5624
509	921.76	1195.1	5608
510	921.92	1196.9	5620
511	922.07	1198.7	5582
512	922.23	1200.5	5620
513	922.38	1202.3	5654
514	922.54	1204.2	5631
515	922.69	1206	5651
516	922.84	1207.8	5637
517	923	1209.6	5661
518	923.15	1211.4	5568
519	923.31	1213.2	5604
520	923.46	1215	5652
521	923.61	1216.8	5620
522	923.77	1218.6	5540
523	923.92	1220.4	5591
524	924.08	1222.2	5532
525	924.23	1224	5559
526	924.38	1225.8	5568
527	924.54	1227.6	5563
528	924.69	1229.4	5627
529	924.85	1231.2	5610
530	925	1233	5597
531	925.15	1234.8	5544
532	925.31	1236.6	5581
533	925.46	1238.4	5507
534	925.61	1240.2	5560
535	925.77	1242	5551
536	925.92	1243.8	5547
537	926.08	1245.6	5561
538	926.23	1247.4	5568
539	926.38	1249.2	5545
540	926.54	1251	5553
541	926.69	1252.8	5523
542	926.84	1254.6	5549
543	927	1256.3	5564
544	927.15	1258.1	5539
545	927.3	1259.9	5516
546	927.46	1261.7	5543
547	927.61	1263.5	5529
548	927.76	1265.3	5548
549	927.92	1267	5498
550	928.07	1268.8	5481
551	928.22	1270.6	5536
552	928.38	1272.4	5517
553	928.53	1274.2	5486
554	928.68	1275.9	5479
555	928.84	1277.7	5487
556	928.99	1279.5	5427
557	929.14	1281.3	5519
558	929.3	1283	5468
559	929.45	1284.8	5492
560	929.6	1286.6	5411
561	929.76	1288.3	5471
562	929.91	1290.1	5475
563	930.06	1291.9	5502
564	930.21	1293.6	5556
565	930.37	1295.4	5464
566	930.52	1297.2	5521
567	930.67	1298.9	5520
568	930.83	1300.7	5481
569	930.98	1302.5	5460
570	931.13	1304.2	5503
571	931.28	1306	5506
572	931.44	1307.8	5452
573	931.59	1309.5	5517
574	931.74	1311.3	5508
575	931.9	1313	5557
576	932.05	1314.8	5503
577	932.2	1316.5	5494
578	932.35	1318.3	5510
579	932.51	1320.1	5538
580	932.66	1321.8	5515
581	932.81	1323.6	5530
582	932.96	1325.3	5543
583	933.11	1327.1	5553
584	933.27	1328.8	5500
585	933.42	1330.6	5567
586	933.57	1332.3	5547
587	933.72	1334.1	5551
588	933.88	1335.8	5529
589	934.03	1337.5	5543
590	934.18	1339.3	5557
591	934.33	1341	5534
592	934.49	1342.8	5514
593	934.64	1344.5	5485
594	934.79	1346.3	5512
595	934.94	1348	5520
596	935.09	1349.7	5491
597	935.25	1351.5	5469
598	935.4	1353.2	5468
599	935.55	1354.9	5495
600	935.7	1356.7	5501
601	935.85	1358.4	5448
602	936.01	1360.2	5444
603	936.16	1361.9	5488
604	936.31	1363.6	5475
605	936.46	1365.3	5468
606	936.61	1367.1	5462
607	936.76	1368.8	5413
608	936.92	1370.5	5475
609	937.07	1372.3	5455
610	937.22	1374	5444
611	937.37	1375.7	5497
612	937.52	1377.4	5455
613	937.67	1379.2	5425
614	937.83	1380.9	5446
615	937.98	1382.6	5448
616	938.13	1384.3	5421
617	938.28	1386	5417
618	938.43	1387.8	5430
619	938.58	1389.5	5393
620	938.73	1391.2	5401
621	938.88	1392.9	5437
622	939.04	1394.6	5414
623	939.19	1396.3	5390
624	939.34	1398.1	5389
625	939.49	1399.8	5352
626	939.64	1401.5	5348
627	939.79	1403.2	5377
628	939.94	1404.9	5375
629	940.09	1406.6	5358
630	940.25	1408.3	5300
631	940.4	1410	5321
632	940.55	1411.7	5325
633	940.7	1413.4	5375
634	940.85	1415.2	5346
635	941	1416.9	5306
636	941.15	1418.6	5362
637	941.3	1420.3	5324
638	941.45	1422	5286
639	941.6	1423.7	5296
640	941.75	1425.4	5259
641	941.9	1427.1	5242
642	942.06	1428.8	5248
643	942.21	1430.5	5280
644	942.36	1432.2	5208
645	942.51	1433.9	5242
646	942.66	1435.5	5167
647	942.81	1437.2	5163
648	942.96	1438.9	5230
649	943.11	1440.6	5219
650	943.26	1442.3	5230
651	943.41	1444	5176
652	943.56	1445.7	5167
653	943.71	1447.4	5235
654	943.86	1449.1	5211
655	944.01	1450.8	5189
656	944.16	1452.4	5207
657	944.31	1454.1	5160
658	944.46	1455.8	5159
659	944.61	1457.5	5200
660	944.76	1459.2	5164
661	944.91	1460.9	5177
662	945.06	1462.5	5196
663	945.21	1464.2	5156
664	945.36	1465.9	5152
665	945.51	1467.6	5151
666	945.66	1469.2	5113
667	945.81	1470.9	5115
668	945.96	1472.6	5123
669	946.11	1474.3	5093
670	946.26	1475.9	5107
671	946.41	1477.6	5065
672	946.56	1479.3	5032
673	946.71	1481	5025
674	946.86	1482.6	5035
675	947.01	1484.3	5045
676	947.16	1486	4990
677	947.31	1487.6	4971
678	947.46	1489.3	4964
679	947.61	1491	4982
680	947.76	1492.6	5172
681	947.91	1494.3	5214
682	948.06	1496	4961
683	948.21	1497.6	4960
684	948.36	1499.3	4943
685	948.5	1500.9	4922
686	948.65	1502.6	4917
687	948.8	1504.3	4907
688	948.95	1505.9	4913
689	949.1	1507.6	4892
690	949.25	1509.2	4856
691	949.4	1510.9	4850
692	949.55	1512.5	4853
693	949.7	1514.2	4875
694	949.85	1515.8	4825
695	950	1517.5	4845
696	950.14	1519.1	4851
697	950.29	1520.8	4827
698	950.44	1522.4	4815
699	950.59	1524.1	4853
700	950.74	1525.7	4823
701	950.89	1527.4	4770
702	951.04	1529	4780
703	951.19	1530.7	4803
704	951.34	1532.3	4766
705	951.48	1534	4730
706	951.63	1535.6	4800
707	951.78	1537.2	4742
708	951.93	1538.9	4673
709	952.08	1540.5	4739
710	952.23	1542.2	4737
711	952.38	1543.8	4733
712	952.52	1545.4	4749
713	952.67	1547.1	4731
714	952.82	1548.7	4769
715	952.97	1550.3	4719
716	953.12	1552	4658
717	953.27	1553.6	4645
718	953.41	1555.2	4669
719	953.56	1556.9	4631
720	953.71	1558.5	4669
721	953.86	1560.1	4650
722	954.01	1561.7	4648
723	954.15	1563.4	4657
724	954.3	1565	4591
725	954.45	1566.6	4602
726	954.6	1568.2	4602
727	954.75	1569.9	4582
728	954.89	1571.5	4550
729	955.04	1573.1	4583
730	955.19	1574.7	4597
731	955.34	1576.4	4542
732	955.49	1578	4541
733	955.63	1579.6	4513
734	955.78	1581.2	4500
735	955.93	1582.8	4469
736	956.08	1584.4	4512
737	956.22	1586.1	4453
738	956.37	1587.7	4485
739	956.52	1589.3	4443
740	956.67	1590.9	4425
741	956.81	1592.5	4439
742	956.96	1594.1	4406
743	957.11	1595.7	4439
744	957.26	1597.3	4391
745	957.4	1598.9	4445
746	957.55	1600.6	4412
747	957.7	1602.2	4424
748	957.85	1603.8	4407
749	957.99	1605.4	4352
750	958.14	1607	4360
751	958.29	1608.6	4370
752	958.43	1610.2	4329
753	958.58	1611.8	4310
754	958.73	1613.4	4320
755	958.88	1615	4301
756	959.02	1616.6	4285
757	959.17	1618.2	4363
758	959.32	1619.8	4316
759	959.46	1621.4	4393
760	959.61	1623	4333
761	959.76	1624.6	4274
762	959.9	1626.1	4297
763	960.05	1627.7	4288
764	960.2	1629.3	4267
765	960.34	1630.9	4214
766	960.49	1632.5	4207
767	960.64	1634.1	4173
768	960.78	1635.7	4177
769	960.93	1637.3	4132
770	961.08	1638.9	4071
771	961.22	1640.4	4063
772	961.37	1642	4093
773	961.52	1643.6	4070
774	961.66	1645.2	4049
775	961.81	1646.8	4069
776	961.96	1648.4	4010
777	962.1	1649.9	4022
778	962.25	1651.5	4013
779	962.39	1653.1	4010
780	962.54	1654.7	3964
781	962.69	1656.3	4005
782	962.83	1657.8	4002
783	962.98	1659.4	3934
784	963.12	1661	3927
785	963.27	1662.5	3908
786	963.42	1664.1	3881
787	963.56	1665.7	3889
788	963.71	1667.3	3914
789	963.85	1668.8	3897
790	964	1670.4	3886
791	964.15	1672	3797
792	964.29	1673.5	3830
793	964.44	1675.1	3823
794	964.58	1676.7	3801
795	964.73	1678.2	3804
796	964.87	1679.8	3742
797	965.02	1681.4	3805
798	965.16	1682.9	3820
799	965.31	1684.5	3755
800	965.46	1686	3803
801	965.6	1687.6	3803
802	965.75	1689.2	3736
803	965.89	1690.7	3743
804	966.04	1692.3	3755
805	966.18	1693.8	3713
806	966.33	1695.4	3718
807	966.47	1696.9	3656
808	966.62	1698.5	3667
809	966.76	1700.1	3683
810	966.91	1701.6	3723
811	967.05	1703.2	3673
812	967.2	1704.7	3671
813	967.34	1706.3	3648
814	967.49	1707.8	3676
815	967.63	1709.4	3636
816	967.78	1710.9	3609
817	967.92	1712.4	3584
818	968.07	1714	3634
819	968.21	1715.5	3600
820	968.36	1717.1	3604
821	968.5	1718.6	3565
822	968.65	1720.2	3577
823	968.79	1721.7	3553
824	968.93	1723.2	3555
825	969.08	1724.8	3550
826	969.22	1726.3	3611
827	969.37	1727.9	3517
828	969.51	1729.4	3503
829	969.66	1730.9	3536
830	969.8	1732.5	3474
831	969.95	1734	3507
832	970.09	1735.5	3501
833	970.23	1737.1	3435
834	970.38	1738.6	3480
835	970.52	1740.1	3483
836	970.67	1741.7	3479
837	970.81	1743.2	3418
838	970.95	1744.7	3433
839	971.1	1746.2	3386
840	971.24	1747.8	3375
841	971.39	1749.3	3389
842	971.53	1750.8	3416
843	971.67	1752.3	3383
844	971.82	1753.9	3373
845	971.96	1755.4	3354
846	972.11	1756.9	3318
847	972.25	1758.4	3344
848	972.39	1759.9	3360
849	972.54	1761.5	3350
850	972.68	1763	3313
851	972.82	1764.5	3305
852	972.97	1766	3301
853	973.11	1767.5	3316
854	973.25	1769	3241
855	973.4	1770.6	3284
856	973.54	1772.1	3261
857	973.68	1773.6	3250
858	973.83	1775.1	3258
859	973.97	1776.6	3215
860	974.11	1778.1	3231
861	974.26	1779.6	3223
862	974.4	1781.1	3204
863	974.54	1782.6	3167
864	974.69	1784.1	3190
865	974.83	1785.7	3204
866	974.97	1787.2	3154
867	975.12	1788.7	3153
868	975.26	1790.2	3183
869	975.4	1791.7	3180
870	975.54	1793.2	3164
871	975.69	1794.7	3143
872	975.83	1796.2	3120
873	975.97	1797.7	3142
874	976.12	1799.2	3066
875	976.26	1800.7	3097
876	976.4	1802.2	3074
877	976.54	1803.6	3129
878	976.69	1805.1	3042
879	976.83	1806.6	3032
880	976.97	1808.1	3049
881	977.11	1809.6	3065
882	977.26	1811.1	3054
883	977.4	1812.6	3008
884	977.54	1814.1	3017
885	977.68	1815.6	2972
886	977.82	1817.1	2988
887	977.97	1818.6	2979
888	978.11	1820	2941
889	978.25	1821.5	2938
890	978.39	1823	2930
891	978.53	1824.5	2908
892	978.68	1826	2962
893	978.82	1827.5	2896
894	978.96	1828.9	2935
895	979.1	1830.4	2896
896	979.24	1831.9	2870
897	979.39	1833.4	2869
898	979.53	1834.9	2905
899	979.67	1836.3	2860
900	979.81	1837.8	2868
901	979.95	1839.3	2839
902	980.09	1840.8	2862
903	980.24	1842.2	2845
904	980.38	1843.7	2834
905	980.52	1845.2	2824
906	980.66	1846.6	2813
907	980.8	1848.1	2796
908	980.94	1849.6	2812
909	981.08	1851	2756
910	981.23	1852.5	2782
911	981.37	1854	2802
912	981.51	1855.4	2752
913	981.65	1856.9	2728
914	981.79	1858.4	2753
915	981.93	1859.8	2740
916	982.07	1861.3	2728
917	982.21	1862.8	2696
918	982.35	1864.2	2739
919	982.5	1865.7	2712
920	982.64	1867.1	2703
921	982.78	1868.6	2721
922	982.92	1870.1	2693
923	983.06	1871.5	2686
924	983.2	1873	2690
925	983.34	1874.4	2682
926	983.48	1875.9	2643
927	983.62	1877.3	2671
928	983.76	1878.8	2691
929	983.9	1880.2	2617
930	984.04	1881.7	2668
931	984.18	1883.1	2632
932	984.32	1884.6	2639
933	984.46	1886	2590
934	984.6	1887.5	2619
935	984.74	1888.9	2589
936	984.88	1890.4	2583
937	985.02	1891.8	2601
938	985.16	1893.3	2601
939	985.3	1894.7	2579
940	985.45	1896.2	2574
941	985.59	1897.6	2585
942	985.73	1899	2558
943	985.86	1900.5	2546
944	986	1901.9	2539
945	986.14	1903.4	2531
946	986.28	1904.8	2499
947	986.42	1906.2	2528
948	986.56	1907.7	2527
949	986.7	1909.1	2522
950	986.84	1910.5	2486
951	986.98	1912	2527
952	987.12	1913.4	2487
953	987.26	1914.8	2454
954	987.4	1916.3	2469
955	987.54	1917.7	2499
956	987.68	1919.1	2390
957	987.82	1920.6	2460
958	987.96	1922	2414
959	988.1	1923.4	2427
960	988.24	1924.8	2418
961	988.38	1926.3	2387
962	988.52	1927.7	2384
963	988.66	1929.1	2406
964	988.79	1930.5	2383
965	988.93	1931.9	2361
966	989.07	1933.4	2346
967	989.21	1934.8	2378
968	989.35	1936.2	2346
969	989.49	1937.6	2331
970	989.63	1939	2338
971	989.77	1940.5	2335
972	989.91	1941.9	2297
973	990.04	1943.3	2336
974	990.18	1944.7	2316
975	990.32	1946.1	2289
976	990.46	1947.5	2305
977	990.6	1948.9	2287
978	990.74	1950.4	2237
979	990.88	1951.8	2268
980	991.01	1953.2	2287
981	991.15	1954.6	2238
982	991.29	1956	2253
983	991.43	1957.4	2217
984	991.57	1958.8	2226
985	991.71	1960.2	2238
986	991.84	1961.6	2229
987	991.98	1963	2235
988	992.12	1964.4	2162
989	992.26	1965.8	2174
990	992.4	1967.2	2208
991	992.53	1968.6	2180
992	992.67	1970	2155
993	992.81	1971.4	2147
994	992.95	1972.8	2147
995	993.08	1974.2	2164
996	993.22	1975.6	2149
997	993.36	1977	2146
998	993.5	1978.4	2156
999	993.64	1979.8	2121
1000	993.77	1981.2	2124
1001	993.91	1982.6	2090
1002	994.05	1984	2111
1003	994.19	1985.4	2096
1004	994.32	1986.8	2113
1005	994.46	1988.1	2077
1006	994.6	1989.5	2059
1007	994.73	1990.9	2096
1008	994.87	1992.3	2067
1009	995.01	1993.7	2055
1010	995.15	1995.1	2063
1011	995.28	1996.5	2066
1012	995.42	1997.8	2056
1013	995.56	1999.2	2020
1014	995.69	2000.6	2036
1015	995.83	2002	2011
1016	995.97	2003.4	2032
1017	996.1	2004.7	2005
1018	996.24	2006.1	2002
1019	996.38	2007.5	2023
1020	996.51	2008.9	1961
1021	996.65	2010.3	1993
1022	996.79	2011.6	1991
1023	996.92	2013	1967
1024	997.06	2014.4	1962
